Wavelength (nm)	EQE (or reflectance)	Device Current (A)	Photodetector Current (A)	Calibration	Theta Device (for lockin measurement)	Bias (V):	0.000000	AM1.5 1sun (mA/cm2):	0.000094
350.000000	2.347685E-5	1.239578E-11	0.001000	0.000528	166.317241
400.000000	1.246706E-5	1.514748E-11	0.001000	0.001215	-87.673496
450.000000	5.374023E-6	9.049854E-12	0.001000	0.001684	-177.268893
500.000000	5.547139E-6	1.060058E-11	0.001000	0.001911	-153.269187
550.000000	7.695034E-6	1.409730E-11	0.001000	0.001832	-172.965901
600.000000	9.272990E-6	1.505006E-11	0.001000	0.001623	-166.811000
650.000000	1.285331E-5	1.777612E-11	0.001000	0.001383	-148.902302
700.000000	6.626771E-6	9.953411E-12	0.001000	0.001502	-139.677527
750.000000	2.227359E-5	2.701787E-11	0.001000	0.001213	-160.000432
800.000000	2.267381E-5	1.945413E-11	0.001000	0.000858	-172.652040
850.000000	1.072317E-5	7.570559E-12	0.001000	0.000706	142.558988
900.000000	5.095096E-6	1.569290E-11	0.001000	0.003080	-128.717621
950.000000	4.467668E-6	1.004779E-11	0.001000	0.002249	157.731653
1000.000000	1.972158E-5	3.052901E-11	0.001000	0.001548	-163.170195
